Temperature(K),Resistivity(μΩcm)
300,5.64
400,8.06
500,10.74
600,13.54
700,16.46
800,19.47
900,22.58
1000,25.7
1100,28.85
1200,32.02
1300,35.24
1400,38.52
1500,41.85
1600,45.22
1700,48.63
1800,52.08
1900,55.57
2000,59.1
2100,62.65
2200,66.25
2300,69.9
2400,73.55
2500,77.25
2600,81.0
2700,84.7
2800,88.5
2900,92.3
3000,96.2
3100,100.0
3200,103.8
3300,107.8
3400,111.7
3500,115.7
3655,121.8
